# Filename:      /kagra/Dropbox/Personal/Miyo/LOG/190822/TFs/Coherence.1
# Plot type:     Coherence
# Output Format: XY  Zero time  Save separate  
# Channels:             A                         B                Conversion
# Column 1   K1:VIS-ETMX_IP_TEST_L_EXC    K1:VIS-ETMX_TM_DAMP_L_IN1  Phase (degree)
# Data:
0            0           
0.00390625   0           
0.0078125    0           
0.01171875   0           
0.015625     0           
0.01953125   0           
0.0234375    0           
0.02734375   0           
0.03125      0           
0.03515625   0           
0.0390625    0           
0.04296875   0           
0.046875     0           
0.05078125   0           
0.0546875    0           
0.05859375   0           
0.0625       0           
0.06640625   0           
0.0703125    0           
0.07421875   0           
0.078125     0           
0.08203125   0           
0.0859375    0           
0.08984375   0           
0.09375      0           
0.09765625   0           
0.1015625    0           
0.10546875   0           
0.109375     0           
0.11328125   0           
0.1171875    0           
0.12109375   0           
0.125        0           
0.12890625   0           
0.1328125    0           
0.13671875   0           
0.140625     0           
0.14453125   0           
0.1484375    0           
0.15234375   0           
0.15625      0           
0.16015625   0           
0.1640625    0           
0.16796875   0           
0.171875     0           
0.17578125   0           
0.1796875    0           
0.18359375   0           
0.1875       0           
0.19140625   0           
0.1953125    0           
0.19921875   0           
0.203125     0           
0.20703125   0           
0.2109375    0           
0.21484375   0           
0.21875      0           
0.22265625   0           
0.2265625    0           
0.23046875   0           
0.234375     0           
0.23828125   0           
0.2421875    0           
0.24609375   0           
0.25         0           
0.25390625   0           
0.2578125    0           
0.26171875   0           
0.265625     0           
0.26953125   0           
0.2734375    0           
0.27734375   0           
0.28125      0           
0.28515625   0           
0.2890625    0           
0.29296875   0           
0.296875     0           
0.30078125   0           
0.3046875    0           
0.30859375   0           
0.3125       0           
0.31640625   0           
0.3203125    0           
0.32421875   0           
0.328125     0           
0.33203125   0           
0.3359375    0           
0.33984375   0           
0.34375      0           
0.34765625   0           
0.3515625    0           
0.35546875   0           
0.359375     0           
0.36328125   0           
0.3671875    0           
0.37109375   0           
0.375        0           
0.37890625   0           
0.3828125    0           
0.38671875   0           
0.390625     0           
0.39453125   0           
0.3984375    0           
0.40234375   0           
0.40625      0           
0.41015625   0           
0.4140625    0           
0.41796875   0           
0.421875     0           
0.42578125   0           
0.4296875    0           
0.43359375   0           
0.4375       0           
0.44140625   0           
0.4453125    0           
0.44921875   0           
0.453125     0           
0.45703125   0           
0.4609375    0           
0.46484375   0           
0.46875      0           
0.47265625   0           
0.4765625    0           
0.48046875   0           
0.484375     0           
0.48828125   0           
0.4921875    0           
0.49609375   0           
0.5          0           
0.50390625   0           
0.5078125    0           
0.51171875   0           
0.515625     0           
0.51953125   0           
0.5234375    0           
0.52734375   0           
0.53125      0           
0.53515625   0           
0.5390625    0           
0.54296875   0           
0.546875     0           
0.55078125   0           
0.5546875    0           
0.55859375   0           
0.5625       0           
0.56640625   0           
0.5703125    0           
0.57421875   0           
0.578125     0           
0.58203125   0           
0.5859375    0           
0.58984375   0           
0.59375      0           
0.59765625   0           
0.6015625    0           
0.60546875   0           
0.609375     0           
0.61328125   0           
0.6171875    0           
0.62109375   0           
0.625        0           
0.62890625   0           
0.6328125    0           
0.63671875   0           
0.640625     0           
0.64453125   0           
0.6484375    0           
0.65234375   0           
0.65625      0           
0.66015625   0           
0.6640625    0           
0.66796875   0           
0.671875     0           
0.67578125   0           
0.6796875    0           
0.68359375   0           
0.6875       0           
0.69140625   0           
0.6953125    0           
0.69921875   0           
0.703125     0           
0.70703125   0           
0.7109375    0           
0.71484375   0           
0.71875      0           
0.72265625   0           
0.7265625    0           
0.73046875   0           
0.734375     0           
0.73828125   0           
0.7421875    0           
0.74609375   0           
0.75         0           
0.75390625   0           
0.7578125    0           
0.76171875   0           
0.765625     0           
0.76953125   0           
0.7734375    0           
0.77734375   0           
0.78125      0           
0.78515625   0           
0.7890625    0           
0.79296875   0           
0.796875     0           
0.80078125   0           
0.8046875    0           
0.80859375   0           
0.8125       0           
0.81640625   0           
0.8203125    0           
0.82421875   0           
0.828125     0           
0.83203125   0           
0.8359375    0           
0.83984375   0           
0.84375      0           
0.84765625   0           
0.8515625    0           
0.85546875   0           
0.859375     0           
0.86328125   0           
0.8671875    0           
0.87109375   0           
0.875        0           
0.87890625   0           
0.8828125    0           
0.88671875   0           
0.890625     0           
0.89453125   0           
0.8984375    0           
0.90234375   0           
0.90625      0           
0.91015625   0           
0.9140625    0           
0.91796875   0           
0.921875     0           
0.92578125   0           
0.9296875    0           
0.93359375   0           
0.9375       0           
0.94140625   0           
0.9453125    0           
0.94921875   0           
0.953125     0           
0.95703125   0           
0.9609375    0           
0.96484375   0           
0.96875      0           
0.97265625   0           
0.9765625    0           
0.98046875   0           
0.984375     0           
0.98828125   0           
0.9921875    0           
0.99609375   0           
1            0           
1.0039062    0           
1.0078125    0           
1.0117188    0           
1.015625     0           
1.0195312    0           
1.0234375    0           
1.0273438    0           
1.03125      0           
1.0351562    0           
1.0390625    0           
1.0429688    0           
1.046875     0           
1.0507812    0           
1.0546875    0           
1.0585938    0           
1.0625       0           
1.0664062    0           
1.0703125    0           
1.0742188    0           
1.078125     0           
1.0820312    0           
1.0859375    0           
1.0898438    0           
1.09375      0           
1.0976562    0           
1.1015625    0           
1.1054688    0           
1.109375     0           
1.1132812    0           
1.1171875    0           
1.1210938    0           
1.125        0           
1.1289062    0           
1.1328125    0           
1.1367188    0           
1.140625     0           
1.1445312    0           
1.1484375    0           
1.1523438    0           
1.15625      0           
1.1601562    0           
1.1640625    0           
1.1679688    0           
1.171875     0           
1.1757812    0           
1.1796875    0           
1.1835938    0           
1.1875       0           
1.1914062    0           
1.1953125    0           
1.1992188    0           
1.203125     0           
1.2070312    0           
1.2109375    0           
1.2148438    0           
1.21875      0           
1.2226562    0           
1.2265625    0           
1.2304688    0           
1.234375     0           
1.2382812    0           
1.2421875    0           
1.2460938    0           
1.25         0           
1.2539062    0           
1.2578125    0           
1.2617188    0           
1.265625     0           
1.2695312    0           
1.2734375    0           
1.2773438    0           
1.28125      0           
1.2851562    0           
1.2890625    0           
1.2929688    0           
1.296875     0           
1.3007812    0           
1.3046875    0           
1.3085938    0           
1.3125       0           
1.3164062    0           
1.3203125    0           
1.3242188    0           
1.328125     0           
1.3320312    0           
1.3359375    0           
1.3398438    0           
1.34375      0           
1.3476562    0           
1.3515625    0           
1.3554688    0           
1.359375     0           
1.3632812    0           
1.3671875    0           
1.3710938    0           
1.375        0           
1.3789062    0           
1.3828125    0           
1.3867188    0           
1.390625     0           
1.3945312    0           
1.3984375    0           
1.4023438    0           
1.40625      0           
1.4101562    0           
1.4140625    0           
1.4179688    0           
1.421875     0           
1.4257812    0           
1.4296875    0           
1.4335938    0           
1.4375       0           
1.4414062    0           
1.4453125    0           
1.4492188    0           
1.453125     0           
1.4570312    0           
1.4609375    0           
1.4648438    0           
1.46875      0           
1.4726562    0           
1.4765625    0           
1.4804688    0           
1.484375     0           
1.4882812    0           
1.4921875    0           
1.4960938    0           
1.5          0           
1.5039062    0           
1.5078125    0           
1.5117188    0           
1.515625     0           
1.5195312    0           
1.5234375    0           
1.5273438    0           
1.53125      0           
1.5351562    0           
1.5390625    0           
1.5429688    0           
1.546875     0           
1.5507812    0           
1.5546875    0           
1.5585938    0           
1.5625       0           
1.5664062    0           
1.5703125    0           
1.5742188    0           
1.578125     0           
1.5820312    0           
1.5859375    0           
1.5898438    0           
1.59375      0           
1.5976562    0           
1.6015625    0           
1.6054688    0           
1.609375     0           
1.6132812    0           
1.6171875    0           
1.6210938    0           
1.625        0           
1.6289062    0           
1.6328125    0           
1.6367188    0           
1.640625     0           
1.6445312    0           
1.6484375    0           
1.6523438    0           
1.65625      0           
1.6601562    0           
1.6640625    0           
1.6679688    0           
1.671875     0           
1.6757812    0           
1.6796875    0           
1.6835938    0           
1.6875       0           
1.6914062    0           
1.6953125    0           
1.6992188    0           
1.703125     0           
1.7070312    0           
1.7109375    0           
1.7148438    0           
1.71875      0           
1.7226562    0           
1.7265625    0           
1.7304688    0           
1.734375     0           
1.7382812    0           
1.7421875    0           
1.7460938    0           
1.75         0           
1.7539062    0           
1.7578125    0           
1.7617188    0           
1.765625     0           
1.7695312    0           
1.7734375    0           
1.7773438    0           
1.78125      0           
1.7851562    0           
1.7890625    0           
1.7929688    0           
1.796875     0           
1.8007812    0           
1.8046875    0           
1.8085938    0           
1.8125       0           
1.8164062    0           
1.8203125    0           
1.8242188    0           
1.828125     0           
1.8320312    0           
1.8359375    0           
1.8398438    0           
1.84375      0           
1.8476562    0           
1.8515625    0           
1.8554688    0           
1.859375     0           
1.8632812    0           
1.8671875    0           
1.8710938    0           
1.875        0           
1.8789062    0           
1.8828125    0           
1.8867188    0           
1.890625     0           
1.8945312    0           
1.8984375    0           
1.9023438    0           
1.90625      0           
1.9101562    0           
1.9140625    0           
1.9179688    0           
1.921875     0           
1.9257812    0           
1.9296875    0           
1.9335938    0           
1.9375       0           
1.9414062    0           
1.9453125    0           
1.9492188    0           
1.953125     0           
1.9570312    0           
1.9609375    0           
1.9648438    0           
1.96875      0           
1.9726562    0           
1.9765625    0           
1.9804688    0           
1.984375     0           
1.9882812    0           
1.9921875    0           
1.9960938    0           
2            0           
2.0039062    0           
2.0078125    0           
2.0117188    0           
2.015625     0           
2.0195312    0           
2.0234375    0           
2.0273438    0           
2.03125      0           
2.0351562    0           
2.0390625    0           
2.0429688    0           
2.046875     0           
2.0507812    0           
2.0546875    0           
2.0585938    0           
2.0625       0           
2.0664062    0           
2.0703125    0           
2.0742188    0           
2.078125     0           
2.0820312    0           
2.0859375    0           
2.0898438    0           
2.09375      0           
2.0976562    0           
2.1015625    0           
2.1054688    0           
2.109375     0           
2.1132812    0           
2.1171875    0           
2.1210938    0           
2.125        0           
2.1289062    0           
2.1328125    0           
2.1367188    0           
2.140625     0           
2.1445312    0           
2.1484375    0           
2.1523438    0           
2.15625      0           
2.1601562    0           
2.1640625    0           
2.1679688    0           
2.171875     0           
2.1757812    0           
2.1796875    0           
2.1835938    0           
2.1875       0           
2.1914062    0           
2.1953125    0           
2.1992188    0           
2.203125     0           
2.2070312    0           
2.2109375    0           
2.2148438    0           
2.21875      0           
2.2226562    0           
2.2265625    0           
2.2304688    0           
2.234375     0           
2.2382812    0           
2.2421875    0           
2.2460938    0           
2.25         0           
2.2539062    0           
2.2578125    0           
2.2617188    0           
2.265625     0           
2.2695312    0           
2.2734375    0           
2.2773438    0           
2.28125      0           
2.2851562    0           
2.2890625    0           
2.2929688    0           
2.296875     0           
2.3007812    0           
2.3046875    0           
2.3085938    0           
2.3125       0           
2.3164062    0           
2.3203125    0           
2.3242188    0           
2.328125     0           
2.3320312    0           
2.3359375    0           
2.3398438    0           
2.34375      0           
2.3476562    0           
2.3515625    0           
2.3554688    0           
2.359375     0           
2.3632812    0           
2.3671875    0           
2.3710938    0           
2.375        0           
2.3789062    0           
2.3828125    0           
2.3867188    0           
2.390625     0           
2.3945312    0           
2.3984375    0           
2.4023438    0           
2.40625      0           
2.4101562    0           
2.4140625    0           
2.4179688    0           
2.421875     0           
2.4257812    0           
2.4296875    0           
2.4335938    0           
2.4375       0           
2.4414062    0           
2.4453125    0           
2.4492188    0           
2.453125     0           
2.4570312    0           
2.4609375    0           
2.4648438    0           
2.46875      0           
2.4726562    0           
2.4765625    0           
2.4804688    0           
2.484375     0           
2.4882812    0           
2.4921875    0           
2.4960938    0           
2.5          0           
2.5039062    0           
2.5078125    0           
2.5117188    0           
2.515625     0           
2.5195312    0           
2.5234375    0           
2.5273438    0           
2.53125      0           
2.5351562    0           
2.5390625    0           
2.5429688    0           
2.546875     0           
2.5507812    0           
2.5546875    0           
2.5585938    0           
2.5625       0           
2.5664062    0           
2.5703125    0           
2.5742188    0           
2.578125     0           
2.5820312    0           
2.5859375    0           
2.5898438    0           
2.59375      0           
2.5976562    0           
2.6015625    0           
2.6054688    0           
2.609375     0           
2.6132812    0           
2.6171875    0           
2.6210938    0           
2.625        0           
2.6289062    0           
2.6328125    0           
2.6367188    0           
2.640625     0           
2.6445312    0           
2.6484375    0           
2.6523438    0           
2.65625      0           
2.6601562    0           
2.6640625    0           
2.6679688    0           
2.671875     0           
2.6757812    0           
2.6796875    0           
2.6835938    0           
2.6875       0           
2.6914062    0           
2.6953125    0           
2.6992188    0           
2.703125     0           
2.7070312    0           
2.7109375    0           
2.7148438    0           
2.71875      0           
2.7226562    0           
2.7265625    0           
2.7304688    0           
2.734375     0           
2.7382812    0           
2.7421875    0           
2.7460938    0           
2.75         0           
2.7539062    0           
2.7578125    0           
2.7617188    0           
2.765625     0           
2.7695312    0           
2.7734375    0           
2.7773438    0           
2.78125      0           
2.7851562    0           
2.7890625    0           
2.7929688    0           
2.796875     0           
2.8007812    0           
2.8046875    0           
2.8085938    0           
2.8125       0           
2.8164062    0           
2.8203125    0           
2.8242188    0           
2.828125     0           
2.8320312    0           
2.8359375    0           
2.8398438    0           
2.84375      0           
2.8476562    0           
2.8515625    0           
2.8554688    0           
2.859375     0           
2.8632812    0           
2.8671875    0           
2.8710938    0           
2.875        0           
2.8789062    0           
2.8828125    0           
2.8867188    0           
2.890625     0           
2.8945312    0           
2.8984375    0           
2.9023438    0           
2.90625      0           
2.9101562    0           
2.9140625    0           
2.9179688    0           
2.921875     0           
2.9257812    0           
2.9296875    0           
2.9335938    0           
2.9375       0           
2.9414062    0           
2.9453125    0           
2.9492188    0           
2.953125     0           
2.9570312    0           
2.9609375    0           
2.9648438    0           
2.96875      0           
2.9726562    0           
2.9765625    0           
2.9804688    0           
2.984375     0           
2.9882812    0           
2.9921875    0           
2.9960938    0           
3            0           
3.0039062    0           
3.0078125    0           
3.0117188    0           
3.015625     0           
3.0195312    0           
3.0234375    0           
3.0273438    0           
3.03125      0           
3.0351562    0           
3.0390625    0           
3.0429688    0           
3.046875     0           
3.0507812    0           
3.0546875    0           
3.0585938    0           
3.0625       0           
3.0664062    0           
3.0703125    0           
3.0742188    0           
3.078125     0           
3.0820312    0           
3.0859375    0           
3.0898438    0           
3.09375      0           
3.0976562    0           
3.1015625    0           
3.1054688    0           
3.109375     0           
3.1132812    0           
3.1171875    0           
3.1210938    0           
3.125        0           
3.1289062    0           
3.1328125    0           
3.1367188    0           
3.140625     0           
3.1445312    0           
3.1484375    0           
3.1523438    0           
3.15625      0           
3.1601562    0           
3.1640625    0           
3.1679688    0           
3.171875     0           
3.1757812    0           
3.1796875    0           
3.1835938    0           
3.1875       0           
3.1914062    0           
3.1953125    0           
3.1992188    0           
3.203125     0           
3.2070312    0           
3.2109375    0           
3.2148438    0           
3.21875      0           
3.2226562    0           
3.2265625    0           
3.2304688    0           
3.234375     0           
3.2382812    0           
3.2421875    0           
3.2460938    0           
3.25         0           
3.2539062    0           
3.2578125    0           
3.2617188    0           
3.265625     0           
3.2695312    0           
3.2734375    0           
3.2773438    0           
3.28125      0           
3.2851562    0           
3.2890625    0           
3.2929688    0           
3.296875     0           
3.3007812    0           
3.3046875    0           
3.3085938    0           
3.3125       0           
3.3164062    0           
3.3203125    0           
3.3242188    0           
3.328125     0           
3.3320312    0           
3.3359375    0           
3.3398438    0           
3.34375      0           
3.3476562    0           
3.3515625    0           
3.3554688    0           
3.359375     0           
3.3632812    0           
3.3671875    0           
3.3710938    0           
3.375        0           
3.3789062    0           
3.3828125    0           
3.3867188    0           
3.390625     0           
3.3945312    0           
3.3984375    0           
3.4023438    0           
3.40625      0           
3.4101562    0           
3.4140625    0           
3.4179688    0           
3.421875     0           
3.4257812    0           
3.4296875    0           
3.4335938    0           
3.4375       0           
3.4414062    0           
3.4453125    0           
3.4492188    0           
3.453125     0           
3.4570312    0           
3.4609375    0           
3.4648438    0           
3.46875      0           
3.4726562    0           
3.4765625    0           
3.4804688    0           
3.484375     0           
3.4882812    0           
3.4921875    0           
3.4960938    0           
3.5          0           
3.5039062    0           
3.5078125    0           
3.5117188    0           
3.515625     0           
3.5195312    0           
3.5234375    0           
3.5273438    0           
3.53125      0           
3.5351562    0           
3.5390625    0           
3.5429688    0           
3.546875     0           
3.5507812    0           
3.5546875    0           
3.5585938    0           
3.5625       0           
3.5664062    0           
3.5703125    0           
3.5742188    0           
3.578125     0           
3.5820312    0           
3.5859375    0           
3.5898438    0           
3.59375      0           
3.5976562    0           
3.6015625    0           
3.6054688    0           
3.609375     0           
3.6132812    0           
3.6171875    0           
3.6210938    0           
3.625        0           
3.6289062    0           
3.6328125    0           
3.6367188    0           
3.640625     0           
3.6445312    0           
3.6484375    0           
3.6523438    0           
3.65625      0           
3.6601562    0           
3.6640625    0           
3.6679688    0           
3.671875     0           
3.6757812    0           
3.6796875    0           
3.6835938    0           
3.6875       0           
3.6914062    0           
3.6953125    0           
3.6992188    0           
3.703125     0           
3.7070312    0           
3.7109375    0           
3.7148438    0           
3.71875      0           
3.7226562    0           
3.7265625    0           
3.7304688    0           
3.734375     0           
3.7382812    0           
3.7421875    0           
3.7460938    0           
3.75         0           
3.7539062    0           
3.7578125    0           
3.7617188    0           
3.765625     0           
3.7695312    0           
3.7734375    0           
3.7773438    0           
3.78125      0           
3.7851562    0           
3.7890625    0           
3.7929688    0           
3.796875     0           
3.8007812    0           
3.8046875    0           
3.8085938    0           
3.8125       0           
3.8164062    0           
3.8203125    0           
3.8242188    0           
3.828125     0           
3.8320312    0           
3.8359375    0           
3.8398438    0           
3.84375      0           
3.8476562    0           
3.8515625    0           
3.8554688    0           
3.859375     0           
3.8632812    0           
3.8671875    0           
3.8710938    0           
3.875        0           
3.8789062    0           
3.8828125    0           
3.8867188    0           
3.890625     0           
3.8945312    0           
3.8984375    0           
3.9023438    0           
3.90625      0           
3.9101562    0           
3.9140625    0           
3.9179688    0           
3.921875     0           
3.9257812    0           
3.9296875    0           
3.9335938    0           
3.9375       0           
3.9414062    0           
3.9453125    0           
3.9492188    0           
3.953125     0           
3.9570312    0           
3.9609375    0           
3.9648438    0           
3.96875      0           
3.9726562    0           
3.9765625    0           
3.9804688    0           
3.984375     0           
3.9882812    0           
3.9921875    0           
3.9960938    0           
4            0           
4.0039062    0           
4.0078125    0           
4.0117188    0           
4.015625     0           
4.0195312    0           
4.0234375    0           
4.0273438    0           
4.03125      0           
4.0351562    0           
4.0390625    0           
4.0429688    0           
4.046875     0           
4.0507812    0           
4.0546875    0           
4.0585938    0           
4.0625       0           
4.0664062    0           
4.0703125    0           
4.0742188    0           
4.078125     0           
4.0820312    0           
4.0859375    0           
4.0898438    0           
4.09375      0           
4.0976562    0           
4.1015625    0           
4.1054688    0           
4.109375     0           
4.1132812    0           
4.1171875    0           
4.1210938    0           
4.125        0           
4.1289062    0           
4.1328125    0           
4.1367188    0           
4.140625     0           
4.1445312    0           
4.1484375    0           
4.1523438    0           
4.15625      0           
4.1601562    0           
4.1640625    0           
4.1679688    0           
4.171875     0           
4.1757812    0           
4.1796875    0           
4.1835938    0           
4.1875       0           
4.1914062    0           
4.1953125    0           
4.1992188    0           
4.203125     0           
4.2070312    0           
4.2109375    0           
4.2148438    0           
4.21875      0           
4.2226562    0           
4.2265625    0           
4.2304688    0           
4.234375     0           
4.2382812    0           
4.2421875    0           
4.2460938    0           
4.25         0           
4.2539062    0           
4.2578125    0           
4.2617188    0           
4.265625     0           
4.2695312    0           
4.2734375    0           
4.2773438    0           
4.28125      0           
4.2851562    0           
4.2890625    0           
4.2929688    0           
4.296875     0           
4.3007812    0           
4.3046875    0           
4.3085938    0           
4.3125       0           
4.3164062    0           
4.3203125    0           
4.3242188    0           
4.328125     0           
4.3320312    0           
4.3359375    0           
4.3398438    0           
4.34375      0           
4.3476562    0           
4.3515625    0           
4.3554688    0           
4.359375     0           
4.3632812    0           
4.3671875    0           
4.3710938    0           
4.375        0           
4.3789062    0           
4.3828125    0           
4.3867188    0           
4.390625     0           
4.3945312    0           
4.3984375    0           
4.4023438    0           
4.40625      0           
4.4101562    0           
4.4140625    0           
4.4179688    0           
4.421875     0           
4.4257812    0           
4.4296875    0           
4.4335938    0           
4.4375       0           
4.4414062    0           
4.4453125    0           
4.4492188    0           
4.453125     0           
4.4570312    0           
4.4609375    0           
4.4648438    0           
4.46875      0           
4.4726562    0           
4.4765625    0           
4.4804688    0           
4.484375     0           
4.4882812    0           
4.4921875    0           
4.4960938    0           
4.5          0           
4.5039062    0           
4.5078125    0           
4.5117188    0           
4.515625     0           
4.5195312    0           
4.5234375    0           
4.5273438    0           
4.53125      0           
4.5351562    0           
4.5390625    0           
4.5429688    0           
4.546875     0           
4.5507812    0           
4.5546875    0           
4.5585938    0           
4.5625       0           
4.5664062    0           
4.5703125    0           
4.5742188    0           
4.578125     0           
4.5820312    0           
4.5859375    0           
4.5898438    0           
4.59375      0           
4.5976562    0           
4.6015625    0           
4.6054688    0           
4.609375     0           
4.6132812    0           
4.6171875    0           
4.6210938    0           
4.625        0           
4.6289062    0           
4.6328125    0           
4.6367188    0           
4.640625     0           
4.6445312    0           
4.6484375    0           
4.6523438    0           
4.65625      0           
4.6601562    0           
4.6640625    0           
4.6679688    0           
4.671875     0           
4.6757812    0           
4.6796875    0           
4.6835938    0           
4.6875       0           
4.6914062    0           
4.6953125    0           
4.6992188    0           
4.703125     0           
4.7070312    0           
4.7109375    0           
4.7148438    0           
4.71875      0           
4.7226562    0           
4.7265625    0           
4.7304688    0           
4.734375     0           
4.7382812    0           
4.7421875    0           
4.7460938    0           
4.75         0           
4.7539062    0           
4.7578125    0           
4.7617188    0           
4.765625     0           
4.7695312    0           
4.7734375    0           
4.7773438    0           
4.78125      0           
4.7851562    0           
4.7890625    0           
4.7929688    0           
4.796875     0           
4.8007812    0           
4.8046875    0           
4.8085938    0           
4.8125       0           
4.8164062    0           
4.8203125    0           
4.8242188    0           
4.828125     0           
4.8320312    0           
4.8359375    0           
4.8398438    0           
4.84375      0           
4.8476562    0           
4.8515625    0           
4.8554688    0           
4.859375     0           
4.8632812    0           
4.8671875    0           
4.8710938    0           
4.875        0           
4.8789062    0           
4.8828125    0           
4.8867188    0           
4.890625     0           
4.8945312    0           
4.8984375    0           
4.9023438    0           
4.90625      0           
4.9101562    0           
4.9140625    0           
4.9179688    0           
4.921875     0           
4.9257812    0           
4.9296875    0           
4.9335938    0           
4.9375       0           
4.9414062    0           
4.9453125    0           
4.9492188    0           
4.953125     0           
4.9570312    0           
4.9609375    0           
4.9648438    0           
4.96875      0           
4.9726562    0           
4.9765625    0           
4.9804688    0           
4.984375     0           
4.9882812    0           
4.9921875    0           
4.9960938    0           
5            0           
5.0039062    0           
5.0078125    0           
5.0117188    0           
5.015625     0           
5.0195312    0           
5.0234375    0           
5.0273438    0           
5.03125      0           
5.0351562    0           
5.0390625    0           
5.0429688    0           
5.046875     0           
5.0507812    0           
5.0546875    0           
5.0585938    0           
5.0625       0           
5.0664062    0           
5.0703125    0           
5.0742188    0           
5.078125     0           
5.0820312    0           
5.0859375    0           
5.0898438    0           
5.09375      0           
5.0976562    0           
5.1015625    0           
5.1054688    0           
5.109375     0           
5.1132812    0           
5.1171875    0           
5.1210938    0           
5.125        0           
5.1289062    0           
5.1328125    0           
5.1367188    0           
5.140625     0           
5.1445312    0           
5.1484375    0           
5.1523438    0           
5.15625      0           
5.1601562    0           
5.1640625    0           
5.1679688    0           
5.171875     0           
5.1757812    0           
5.1796875    0           
5.1835938    0           
5.1875       0           
5.1914062    0           
5.1953125    0           
5.1992188    0           
5.203125     0           
5.2070312    0           
5.2109375    0           
5.2148438    0           
5.21875      0           
5.2226562    0           
5.2265625    0           
5.2304688    0           
5.234375     0           
5.2382812    0           
5.2421875    0           
5.2460938    0           
5.25         0           
5.2539062    0           
5.2578125    0           
5.2617188    0           
5.265625     0           
5.2695312    0           
5.2734375    0           
5.2773438    0           
5.28125      0           
5.2851562    0           
5.2890625    0           
5.2929688    0           
5.296875     0           
5.3007812    0           
5.3046875    0           
5.3085938    0           
5.3125       0           
5.3164062    0           
5.3203125    0           
5.3242188    0           
5.328125     0           
5.3320312    0           
5.3359375    0           
5.3398438    0           
5.34375      0           
5.3476562    0           
5.3515625    0           
5.3554688    0           
5.359375     0           
5.3632812    0           
5.3671875    0           
5.3710938    0           
5.375        0           
5.3789062    0           
5.3828125    0           
5.3867188    0           
5.390625     0           
5.3945312    0           
5.3984375    0           
5.4023438    0           
5.40625      0           
5.4101562    0           
5.4140625    0           
5.4179688    0           
5.421875     0           
5.4257812    0           
5.4296875    0           
5.4335938    0           
5.4375       0           
5.4414062    0           
5.4453125    0           
5.4492188    0           
5.453125     0           
5.4570312    0           
5.4609375    0           
5.4648438    0           
5.46875      0           
5.4726562    0           
5.4765625    0           
5.4804688    0           
5.484375     0           
5.4882812    0           
5.4921875    0           
5.4960938    0           
5.5          0           
5.5039062    0           
5.5078125    0           
5.5117188    0           
5.515625     0           
5.5195312    0           
5.5234375    0           
5.5273438    0           
5.53125      0           
5.5351562    0           
5.5390625    0           
5.5429688    0           
5.546875     0           
5.5507812    0           
5.5546875    0           
5.5585938    0           
5.5625       0           
5.5664062    0           
5.5703125    0           
5.5742188    0           
5.578125     0           
5.5820312    0           
5.5859375    0           
5.5898438    0           
5.59375      0           
5.5976562    0           
5.6015625    0           
5.6054688    0           
5.609375     0           
5.6132812    0           
5.6171875    0           
5.6210938    0           
5.625        0           
5.6289062    0           
5.6328125    0           
5.6367188    0           
5.640625     0           
5.6445312    0           
5.6484375    0           
5.6523438    0           
5.65625      0           
5.6601562    0           
5.6640625    0           
5.6679688    0           
5.671875     0           
5.6757812    0           
5.6796875    0           
5.6835938    0           
5.6875       0           
5.6914062    0           
5.6953125    0           
5.6992188    0           
5.703125     0           
5.7070312    0           
5.7109375    0           
5.7148438    0           
5.71875      0           
5.7226562    0           
5.7265625    0           
5.7304688    0           
5.734375     0           
5.7382812    0           
5.7421875    0           
5.7460938    0           
5.75         0           
5.7539062    0           
5.7578125    0           
5.7617188    0           
5.765625     0           
5.7695312    0           
5.7734375    0           
5.7773438    0           
5.78125      0           
5.7851562    0           
5.7890625    0           
5.7929688    0           
5.796875     0           
5.8007812    0           
5.8046875    0           
5.8085938    0           
5.8125       0           
5.8164062    0           
5.8203125    0           
5.8242188    0           
5.828125     0           
5.8320312    0           
5.8359375    0           
5.8398438    0           
5.84375      0           
5.8476562    0           
5.8515625    0           
5.8554688    0           
5.859375     0           
5.8632812    0           
5.8671875    0           
5.8710938    0           
5.875        0           
5.8789062    0           
5.8828125    0           
5.8867188    0           
5.890625     0           
5.8945312    0           
5.8984375    0           
5.9023438    0           
5.90625      0           
5.9101562    0           
5.9140625    0           
5.9179688    0           
5.921875     0           
5.9257812    0           
5.9296875    0           
5.9335938    0           
5.9375       0           
5.9414062    0           
5.9453125    0           
5.9492188    0           
5.953125     0           
5.9570312    0           
5.9609375    0           
5.9648438    0           
5.96875      0           
5.9726562    0           
5.9765625    0           
5.9804688    0           
5.984375     0           
5.9882812    0           
5.9921875    0           
5.9960938    0           
6            0           
6.0039062    0           
6.0078125    0           
6.0117188    0           
6.015625     0           
6.0195312    0           
6.0234375    0           
6.0273438    0           
6.03125      0           
6.0351562    0           
6.0390625    0           
6.0429688    0           
6.046875     0           
6.0507812    0           
6.0546875    0           
6.0585938    0           
6.0625       0           
6.0664062    0           
6.0703125    0           
6.0742188    0           
6.078125     0           
6.0820312    0           
6.0859375    0           
6.0898438    0           
6.09375      0           
6.0976562    0           
6.1015625    0           
6.1054688    0           
6.109375     0           
6.1132812    0           
6.1171875    0           
6.1210938    0           
6.125        0           
6.1289062    0           
6.1328125    0           
6.1367188    0           
6.140625     0           
6.1445312    0           
6.1484375    0           
6.1523438    0           
6.15625      0           
6.1601562    0           
6.1640625    0           
6.1679688    0           
6.171875     0           
6.1757812    0           
6.1796875    0           
6.1835938    0           
6.1875       0           
6.1914062    0           
6.1953125    0           
6.1992188    0           
6.203125     0           
6.2070312    0           
6.2109375    0           
6.2148438    0           
6.21875      0           
6.2226562    0           
6.2265625    0           
6.2304688    0           
6.234375     0           
6.2382812    0           
6.2421875    0           
6.2460938    0           
6.25         0           
6.2539062    0           
6.2578125    0           
6.2617188    0           
6.265625     0           
6.2695312    0           
6.2734375    0           
6.2773438    0           
6.28125      0           
6.2851562    0           
6.2890625    0           
6.2929688    0           
6.296875     0           
6.3007812    0           
6.3046875    0           
6.3085938    0           
6.3125       0           
6.3164062    0           
6.3203125    0           
6.3242188    0           
6.328125     0           
6.3320312    0           
6.3359375    0           
6.3398438    0           
6.34375      0           
6.3476562    0           
6.3515625    0           
6.3554688    0           
6.359375     0           
6.3632812    0           
6.3671875    0           
6.3710938    0           
6.375        0           
6.3789062    0           
6.3828125    0           
6.3867188    0           
6.390625     0           
6.3945312    0           
6.3984375    0           
6.4023438    0           
6.40625      0           
6.4101562    0           
6.4140625    0           
6.4179688    0           
6.421875     0           
6.4257812    0           
6.4296875    0           
6.4335938    0           
6.4375       0           
6.4414062    0           
6.4453125    0           
6.4492188    0           
6.453125     0           
6.4570312    0           
6.4609375    0           
6.4648438    0           
6.46875      0           
6.4726562    0           
6.4765625    0           
6.4804688    0           
6.484375     0           
6.4882812    0           
6.4921875    0           
6.4960938    0           
6.5          0           
6.5039062    0           
6.5078125    0           
6.5117188    0           
6.515625     0           
6.5195312    0           
6.5234375    0           
6.5273438    0           
6.53125      0           
6.5351562    0           
6.5390625    0           
6.5429688    0           
6.546875     0           
6.5507812    0           
6.5546875    0           
6.5585938    0           
6.5625       0           
6.5664062    0           
6.5703125    0           
6.5742188    0           
6.578125     0           
6.5820312    0           
6.5859375    0           
6.5898438    0           
6.59375      0           
6.5976562    0           
6.6015625    0           
6.6054688    0           
6.609375     0           
6.6132812    0           
6.6171875    0           
6.6210938    0           
6.625        0           
6.6289062    0           
6.6328125    0           
6.6367188    0           
6.640625     0           
6.6445312    0           
6.6484375    0           
6.6523438    0           
6.65625      0           
6.6601562    0           
6.6640625    0           
6.6679688    0           
6.671875     0           
6.6757812    0           
6.6796875    0           
6.6835938    0           
6.6875       0           
6.6914062    0           
6.6953125    0           
6.6992188    0           
6.703125     0           
6.7070312    0           
6.7109375    0           
6.7148438    0           
6.71875      0           
6.7226562    0           
6.7265625    0           
6.7304688    0           
6.734375     0           
6.7382812    0           
6.7421875    0           
6.7460938    0           
6.75         0           
6.7539062    0           
6.7578125    0           
6.7617188    0           
6.765625     0           
6.7695312    0           
6.7734375    0           
6.7773438    0           
6.78125      0           
6.7851562    0           
6.7890625    0           
6.7929688    0           
6.796875     0           
6.8007812    0           
6.8046875    0           
6.8085938    0           
6.8125       0           
6.8164062    0           
6.8203125    0           
6.8242188    0           
6.828125     0           
6.8320312    0           
6.8359375    0           
6.8398438    0           
6.84375      0           
6.8476562    0           
6.8515625    0           
6.8554688    0           
6.859375     0           
6.8632812    0           
6.8671875    0           
6.8710938    0           
6.875        0           
6.8789062    0           
6.8828125    0           
6.8867188    0           
6.890625     0           
6.8945312    0           
6.8984375    0           
6.9023438    0           
6.90625      0           
6.9101562    0           
6.9140625    0           
6.9179688    0           
6.921875     0           
6.9257812    0           
6.9296875    0           
6.9335938    0           
6.9375       0           
6.9414062    0           
6.9453125    0           
6.9492188    0           
6.953125     0           
6.9570312    0           
6.9609375    0           
6.9648438    0           
6.96875      0           
6.9726562    0           
6.9765625    0           
6.9804688    0           
6.984375     0           
6.9882812    0           
6.9921875    0           
6.9960938    0           
7            0           
7.0039062    0           
7.0078125    0           
7.0117188    0           
7.015625     0           
7.0195312    0           
7.0234375    0           
7.0273438    0           
7.03125      0           
7.0351562    0           
7.0390625    0           
7.0429688    0           
7.046875     0           
7.0507812    0           
7.0546875    0           
7.0585938    0           
7.0625       0           
7.0664062    0           
7.0703125    0           
7.0742188    0           
7.078125     0           
7.0820312    0           
7.0859375    0           
7.0898438    0           
7.09375      0           
7.0976562    0           
7.1015625    0           
7.1054688    0           
7.109375     0           
7.1132812    0           
7.1171875    0           
7.1210938    0           
7.125        0           
7.1289062    0           
7.1328125    0           
7.1367188    0           
7.140625     0           
7.1445312    0           
7.1484375    0           
7.1523438    0           
7.15625      0           
7.1601562    0           
7.1640625    0           
7.1679688    0           
7.171875     0           
7.1757812    0           
7.1796875    0           
7.1835938    0           
7.1875       0           
7.1914062    0           
7.1953125    0           
7.1992188    0           
7.203125     0           
7.2070312    0           
7.2109375    0           
7.2148438    0           
7.21875      0           
7.2226562    0           
7.2265625    0           
7.2304688    0           
7.234375     0           
7.2382812    0           
7.2421875    0           
7.2460938    0           
7.25         0           
7.2539062    0           
7.2578125    0           
7.2617188    0           
7.265625     0           
7.2695312    0           
7.2734375    0           
7.2773438    0           
7.28125      0           
7.2851562    0           
7.2890625    0           
7.2929688    0           
7.296875     0           
7.3007812    0           
7.3046875    0           
7.3085938    0           
7.3125       0           
7.3164062    0           
7.3203125    0           
7.3242188    0           
7.328125     0           
7.3320312    0           
7.3359375    0           
7.3398438    0           
7.34375      0           
7.3476562    0           
7.3515625    0           
7.3554688    0           
7.359375     0           
7.3632812    0           
7.3671875    0           
7.3710938    0           
7.375        0           
7.3789062    0           
7.3828125    0           
7.3867188    0           
7.390625     0           
7.3945312    0           
7.3984375    0           
7.4023438    0           
7.40625      0           
7.4101562    0           
7.4140625    0           
7.4179688    0           
7.421875     0           
7.4257812    0           
7.4296875    0           
7.4335938    0           
7.4375       0           
7.4414062    0           
7.4453125    0           
7.4492188    0           
7.453125     0           
7.4570312    0           
7.4609375    0           
7.4648438    0           
7.46875      0           
7.4726562    0           
7.4765625    0           
7.4804688    0           
7.484375     0           
7.4882812    0           
7.4921875    0           
7.4960938    0           
7.5          0           
7.5039062    0           
7.5078125    0           
7.5117188    0           
7.515625     0           
7.5195312    0           
7.5234375    0           
7.5273438    0           
7.53125      0           
7.5351562    0           
7.5390625    0           
7.5429688    0           
7.546875     0           
7.5507812    0           
7.5546875    0           
7.5585938    0           
7.5625       0           
7.5664062    0           
7.5703125    0           
7.5742188    0           
7.578125     0           
7.5820312    0           
7.5859375    0           
7.5898438    0           
7.59375      0           
7.5976562    0           
7.6015625    0           
7.6054688    0           
7.609375     0           
7.6132812    0           
7.6171875    0           
7.6210938    0           
7.625        0           
7.6289062    0           
7.6328125    0           
7.6367188    0           
7.640625     0           
7.6445312    0           
7.6484375    0           
7.6523438    0           
7.65625      0           
7.6601562    0           
7.6640625    0           
7.6679688    0           
7.671875     0           
7.6757812    0           
7.6796875    0           
7.6835938    0           
7.6875       0           
7.6914062    0           
7.6953125    0           
7.6992188    0           
7.703125     0           
7.7070312    0           
7.7109375    0           
7.7148438    0           
7.71875      0           
7.7226562    0           
7.7265625    0           
7.7304688    0           
7.734375     0           
7.7382812    0           
7.7421875    0           
7.7460938    0           
7.75         0           
7.7539062    0           
7.7578125    0           
7.7617188    0           
7.765625     0           
7.7695312    0           
7.7734375    0           
7.7773438    0           
7.78125      0           
7.7851562    0           
7.7890625    0           
7.7929688    0           
7.796875     0           
7.8007812    0           
7.8046875    0           
7.8085938    0           
7.8125       0           
7.8164062    0           
7.8203125    0           
7.8242188    0           
7.828125     0           
7.8320312    0           
7.8359375    0           
7.8398438    0           
7.84375      0           
7.8476562    0           
7.8515625    0           
7.8554688    0           
7.859375     0           
7.8632812    0           
7.8671875    0           
7.8710938    0           
7.875        0           
7.8789062    0           
7.8828125    0           
7.8867188    0           
7.890625     0           
7.8945312    0           
7.8984375    0           
7.9023438    0           
7.90625      0           
7.9101562    0           
7.9140625    0           
7.9179688    0           
7.921875     0           
7.9257812    0           
7.9296875    0           
7.9335938    0           
7.9375       0           
7.9414062    0           
7.9453125    0           
7.9492188    0           
7.953125     0           
7.9570312    0           
7.9609375    0           
7.9648438    0           
7.96875      0           
7.9726562    0           
7.9765625    0           
7.9804688    0           
7.984375     0           
7.9882812    0           
7.9921875    0           
7.9960938    0           
8            0           
8.0039062    0           
8.0078125    0           
8.0117188    0           
8.015625     0           
8.0195312    0           
8.0234375    0           
8.0273438    0           
8.03125      0           
8.0351562    0           
8.0390625    0           
8.0429688    0           
8.046875     0           
8.0507812    0           
8.0546875    0           
8.0585938    0           
8.0625       0           
8.0664062    0           
8.0703125    0           
8.0742188    0           
8.078125     0           
8.0820312    0           
8.0859375    0           
8.0898438    0           
8.09375      0           
8.0976562    0           
8.1015625    0           
8.1054688    0           
8.109375     0           
8.1132812    0           
8.1171875    0           
8.1210938    0           
8.125        0           
8.1289062    0           
8.1328125    0           
8.1367188    0           
8.140625     0           
8.1445312    0           
8.1484375    0           
8.1523438    0           
8.15625      0           
8.1601562    0           
8.1640625    0           
8.1679688    0           
8.171875     0           
8.1757812    0           
8.1796875    0           
8.1835938    0           
8.1875       0           
8.1914062    0           
8.1953125    0           
8.1992188    0           
8.203125     0           
8.2070312    0           
8.2109375    0           
8.2148438    0           
8.21875      0           
8.2226562    0           
8.2265625    0           
8.2304688    0           
8.234375     0           
8.2382812    0           
8.2421875    0           
8.2460938    0           
8.25         0           
8.2539062    0           
8.2578125    0           
8.2617188    0           
8.265625     0           
8.2695312    0           
8.2734375    0           
8.2773438    0           
8.28125      0           
8.2851562    0           
8.2890625    0           
8.2929688    0           
8.296875     0           
8.3007812    0           
8.3046875    0           
8.3085938    0           
8.3125       0           
8.3164062    0           
8.3203125    0           
8.3242188    0           
8.328125     0           
8.3320312    0           
8.3359375    0           
8.3398438    0           
8.34375      0           
8.3476562    0           
8.3515625    0           
8.3554688    0           
8.359375     0           
8.3632812    0           
8.3671875    0           
8.3710938    0           
8.375        0           
8.3789062    0           
8.3828125    0           
8.3867188    0           
8.390625     0           
8.3945312    0           
8.3984375    0           
8.4023438    0           
8.40625      0           
8.4101562    0           
8.4140625    0           
8.4179688    0           
8.421875     0           
8.4257812    0           
8.4296875    0           
8.4335938    0           
8.4375       0           
8.4414062    0           
8.4453125    0           
8.4492188    0           
8.453125     0           
8.4570312    0           
8.4609375    0           
8.4648438    0           
8.46875      0           
8.4726562    0           
8.4765625    0           
8.4804688    0           
8.484375     0           
8.4882812    0           
8.4921875    0           
8.4960938    0           
8.5          0           
8.5039062    0           
8.5078125    0           
8.5117188    0           
8.515625     0           
8.5195312    0           
8.5234375    0           
8.5273438    0           
8.53125      0           
8.5351562    0           
8.5390625    0           
8.5429688    0           
8.546875     0           
8.5507812    0           
8.5546875    0           
8.5585938    0           
8.5625       0           
8.5664062    0           
8.5703125    0           
8.5742188    0           
8.578125     0           
8.5820312    0           
8.5859375    0           
8.5898438    0           
8.59375      0           
8.5976562    0           
8.6015625    0           
8.6054688    0           
8.609375     0           
8.6132812    0           
8.6171875    0           
8.6210938    0           
8.625        0           
8.6289062    0           
8.6328125    0           
8.6367188    0           
8.640625     0           
8.6445312    0           
8.6484375    0           
8.6523438    0           
8.65625      0           
8.6601562    0           
8.6640625    0           
8.6679688    0           
8.671875     0           
8.6757812    0           
8.6796875    0           
8.6835938    0           
8.6875       0           
8.6914062    0           
8.6953125    0           
8.6992188    0           
8.703125     0           
8.7070312    0           
8.7109375    0           
8.7148438    0           
8.71875      0           
8.7226562    0           
8.7265625    0           
8.7304688    0           
8.734375     0           
8.7382812    0           
8.7421875    0           
8.7460938    0           
8.75         0           
8.7539062    0           
8.7578125    0           
8.7617188    0           
8.765625     0           
8.7695312    0           
8.7734375    0           
8.7773438    0           
8.78125      0           
8.7851562    0           
8.7890625    0           
8.7929688    0           
8.796875     0           
8.8007812    0           
8.8046875    0           
8.8085938    0           
8.8125       0           
8.8164062    0           
8.8203125    0           
8.8242188    0           
8.828125     0           
8.8320312    0           
8.8359375    0           
8.8398438    0           
8.84375      0           
8.8476562    0           
8.8515625    0           
8.8554688    0           
8.859375     0           
8.8632812    0           
8.8671875    0           
8.8710938    0           
8.875        0           
8.8789062    0           
8.8828125    0           
8.8867188    0           
8.890625     0           
8.8945312    0           
8.8984375    0           
8.9023438    0           
8.90625      0           
8.9101562    0           
8.9140625    0           
8.9179688    0           
8.921875     0           
8.9257812    0           
8.9296875    0           
8.9335938    0           
8.9375       0           
8.9414062    0           
8.9453125    0           
8.9492188    0           
8.953125     0           
8.9570312    0           
8.9609375    0           
8.9648438    0           
8.96875      0           
8.9726562    0           
8.9765625    0           
8.9804688    0           
8.984375     0           
8.9882812    0           
8.9921875    0           
8.9960938    0           
9            0           
9.0039062    0           
9.0078125    0           
9.0117188    0           
9.015625     0           
9.0195312    0           
9.0234375    0           
9.0273438    0           
9.03125      0           
9.0351562    0           
9.0390625    0           
9.0429688    0           
9.046875     0           
9.0507812    0           
9.0546875    0           
9.0585938    0           
9.0625       0           
9.0664062    0           
9.0703125    0           
9.0742188    0           
9.078125     0           
9.0820312    0           
9.0859375    0           
9.0898438    0           
9.09375      0           
9.0976562    0           
9.1015625    0           
9.1054688    0           
9.109375     0           
9.1132812    0           
9.1171875    0           
9.1210938    0           
9.125        0           
9.1289062    0           
9.1328125    0           
9.1367188    0           
9.140625     0           
9.1445312    0           
9.1484375    0           
9.1523438    0           
9.15625      0           
9.1601562    0           
9.1640625    0           
9.1679688    0           
9.171875     0           
9.1757812    0           
9.1796875    0           
9.1835938    0           
9.1875       0           
9.1914062    0           
9.1953125    0           
9.1992188    0           
9.203125     0           
9.2070312    0           
9.2109375    0           
9.2148438    0           
9.21875      0           
9.2226562    0           
9.2265625    0           
9.2304688    0           
9.234375     0           
9.2382812    0           
9.2421875    0           
9.2460938    0           
9.25         0           
9.2539062    0           
9.2578125    0           
9.2617188    0           
9.265625     0           
9.2695312    0           
9.2734375    0           
9.2773438    0           
9.28125      0           
9.2851562    0           
9.2890625    0           
9.2929688    0           
9.296875     0           
9.3007812    0           
9.3046875    0           
9.3085938    0           
9.3125       0           
9.3164062    0           
9.3203125    0           
9.3242188    0           
9.328125     0           
9.3320312    0           
9.3359375    0           
9.3398438    0           
9.34375      0           
9.3476562    0           
9.3515625    0           
9.3554688    0           
9.359375     0           
9.3632812    0           
9.3671875    0           
9.3710938    0           
9.375        0           
9.3789062    0           
9.3828125    0           
9.3867188    0           
9.390625     0           
9.3945312    0           
9.3984375    0           
9.4023438    0           
9.40625      0           
9.4101562    0           
9.4140625    0           
9.4179688    0           
9.421875     0           
9.4257812    0           
9.4296875    0           
9.4335938    0           
9.4375       0           
9.4414062    0           
9.4453125    0           
9.4492188    0           
9.453125     0           
9.4570312    0           
9.4609375    0           
9.4648438    0           
9.46875      0           
9.4726562    0           
9.4765625    0           
9.4804688    0           
9.484375     0           
9.4882812    0           
9.4921875    0           
9.4960938    0           
9.5          0           
9.5039062    0           
9.5078125    0           
9.5117188    0           
9.515625     0           
9.5195312    0           
9.5234375    0           
9.5273438    0           
9.53125      0           
9.5351562    0           
9.5390625    0           
9.5429688    0           
9.546875     0           
9.5507812    0           
9.5546875    0           
9.5585938    0           
9.5625       0           
9.5664062    0           
9.5703125    0           
9.5742188    0           
9.578125     0           
9.5820312    0           
9.5859375    0           
9.5898438    0           
9.59375      0           
9.5976562    0           
9.6015625    0           
9.6054688    0           
9.609375     0           
9.6132812    0           
9.6171875    0           
9.6210938    0           
9.625        0           
9.6289062    0           
9.6328125    0           
9.6367188    0           
9.640625     0           
9.6445312    0           
9.6484375    0           
9.6523438    0           
9.65625      0           
9.6601562    0           
9.6640625    0           
9.6679688    0           
9.671875     0           
9.6757812    0           
9.6796875    0           
9.6835938    0           
9.6875       0           
9.6914062    0           
9.6953125    0           
9.6992188    0           
9.703125     0           
9.7070312    0           
9.7109375    0           
9.7148438    0           
9.71875      0           
9.7226562    0           
9.7265625    0           
9.7304688    0           
9.734375     0           
9.7382812    0           
9.7421875    0           
9.7460938    0           
9.75         0           
9.7539062    0           
9.7578125    0           
9.7617188    0           
9.765625     0           
9.7695312    0           
9.7734375    0           
9.7773438    0           
9.78125      0           
9.7851562    0           
9.7890625    0           
9.7929688    0           
9.796875     0           
9.8007812    0           
9.8046875    0           
9.8085938    0           
9.8125       0           
9.8164062    0           
9.8203125    0           
9.8242188    0           
9.828125     0           
9.8320312    0           
9.8359375    0           
9.8398438    0           
9.84375      0           
9.8476562    0           
9.8515625    0           
9.8554688    0           
9.859375     0           
9.8632812    0           
9.8671875    0           
9.8710938    0           
9.875        0           
9.8789062    0           
9.8828125    0           
9.8867188    0           
9.890625     0           
9.8945312    0           
9.8984375    0           
9.9023438    0           
9.90625      0           
9.9101562    0           
9.9140625    0           
9.9179688    0           
9.921875     0           
9.9257812    0           
9.9296875    0           
9.9335938    0           
9.9375       0           
9.9414062    0           
9.9453125    0           
9.9492188    0           
9.953125     0           
9.9570312    0           
9.9609375    0           
9.9648438    0           
9.96875      0           
9.9726562    0           
9.9765625    0           
9.9804688    0           
9.984375     0           
9.9882812    0           
9.9921875    0           
9.9960938    0           
10           0           